# m[Msun] r[Rsun] L[Lsun] T[K] Q[/s] Sdd[mJy kpc2]
        0.20570E-002         2.1196             0.79513E-001         2104.7             0.20798E+008        0.23909E-036        0.14891E-035
        0.21194E-002         2.1145             0.83151E-001         2131.0             0.35829E+008        0.41188E-036        0.24531E-035
        0.21823E-002         2.1115             0.86809E-001         2155.5             0.59311E+008        0.68183E-036        0.38897E-035
        0.22474E-002         2.1182             0.90326E-001         2173.6             0.86397E+008        0.99319E-036        0.54454E-035
        0.23135E-002         2.1299             0.93760E-001         2188.0             0.11688E+009        0.13436E-035        0.70967E-035
        0.23834E-002         2.1473             0.97205E-001         2198.8             0.14782E+009        0.16992E-035        0.86571E-035
        0.24554E-002         2.1641             0.10078              2210.1             0.18843E+009        0.21661E-035        0.10645E-034
        0.25274E-002         2.1847             0.10425              2218.4             0.22655E+009        0.26044E-035        0.12372E-034
        0.26017E-002         2.2077             0.10778              2225.2             0.26520E+009        0.30486E-035        0.14008E-034
        0.26801E-002         2.2267             0.11163              2235.3             0.32912E+009        0.37834E-035        0.16785E-034
        0.27595E-002         2.2483             0.11552              2243.6             0.39600E+009        0.45524E-035        0.19515E-034
        0.28418E-002         2.2673             0.11963              2253.8             0.49195E+009        0.56554E-035        0.23412E-034
        0.29286E-002         2.2881             0.12397              2263.6             0.60740E+009        0.69825E-035        0.27893E-034
        0.30162E-002         2.3110             0.12827              2271.6             0.72418E+009        0.83250E-035        0.32143E-034
        0.31068E-002         2.3352             0.13271              2279.1             0.85561E+009        0.98358E-035        0.36705E-034
        0.32021E-002         2.3548             0.13755              2290.1             0.10754E+010        0.12362E-034        0.44509E-034
        0.32981E-002         2.3826             0.14221              2295.7             0.12273E+010        0.14109E-034        0.49133E-034
        0.33961E-002         2.4038             0.14725              2305.6             0.15103E+010        0.17362E-034        0.58392E-034
        0.34976E-002         2.4256             0.15252              2315.4             0.18580E+010        0.21359E-034        0.69353E-034
        0.36045E-002         2.4512             0.15792              2323.4             0.22100E+010        0.25405E-034        0.79668E-034
        0.37117E-002         2.4750             0.16345              2332.2             0.26633E+010        0.30617E-034        0.92762E-034
        0.38218E-002         2.4982             0.16921              2341.6             0.32372E+010        0.37214E-034        0.10891E-033
        0.39377E-002         2.5220             0.17527              2351.1             0.39471E+010        0.45375E-034        0.12821E-033
        0.40551E-002         2.5520             0.18119              2356.7             0.44926E+010        0.51646E-034        0.14116E-033
        0.41779E-002         2.5758             0.18769              2366.6             0.55081E+010        0.63319E-034        0.16707E-033
        0.43019E-002         2.6013             0.19425              2375.2             0.66035E+010        0.75912E-034        0.19353E-033
        0.44320E-002         2.6283             0.20106              2383.4             0.78528E+010        0.90273E-034        0.22236E-033
        0.45645E-002         2.6562             0.20804              2391.2             0.92627E+010        0.10648E-033        0.25348E-033
        0.47051E-002         2.6871             0.21528              2397.8             0.10715E+011        0.12318E-033        0.28335E-033
        0.48494E-002         2.7113             0.22313              2408.6             0.13300E+011        0.15289E-033        0.33933E-033
        0.49932E-002         2.7404             0.23089              2416.3             0.15650E+011        0.17991E-033        0.38589E-033
        0.51438E-002         2.7687             0.23906              2424.9             0.18705E+011        0.21503E-033        0.44546E-033
        0.52980E-002         2.7963             0.24756              2434.1             0.22550E+011        0.25923E-033        0.51858E-033
        0.54533E-002         2.8242             0.25617              2442.9             0.26958E+011        0.30990E-033        0.59911E-033
        0.56197E-002         2.8502             0.26551              2453.5             0.33305E+011        0.38286E-033        0.71410E-033
        0.57883E-002         2.8813             0.27483              2461.4             0.39226E+011        0.45093E-033        0.81255E-033
        0.59576E-002         2.9134             0.28421              2468.4             0.45479E+011        0.52282E-033        0.91099E-033
        0.61411E-002         2.9446             0.29441              2477.1             0.54213E+011        0.62322E-033        0.10483E-032
        0.63230E-002         2.9754             0.30472              2485.5             0.64372E+011        0.74001E-033        0.12027E-032
        0.65186E-002         3.0058             0.31581              2495.1             0.77913E+011        0.89566E-033        0.14045E-032
        0.67108E-002         3.0367             0.32692              2503.9             0.92948E+011        0.10685E-032        0.16186E-032
        0.69177E-002         3.0728             0.33849              2510.9             0.10763E+012        0.12373E-032        0.18102E-032
        0.71206E-002         3.1059             0.35022              2518.8             0.12647E+012        0.14538E-032        0.20558E-032
        0.73394E-002         3.1368             0.36297              2528.9             0.15398E+012        0.17701E-032        0.24150E-032
        0.75532E-002         3.1636             0.37605              2540.6             0.19186E+012        0.22056E-032        0.29046E-032
        0.77850E-002         3.1933             0.38996              2551.8             0.23763E+012        0.27317E-032        0.34692E-032
        0.80130E-002         3.2221             0.40390              2562.8             0.29255E+012        0.33631E-032        0.41236E-032
        0.82534E-002         3.2564             0.41819              2571.5             0.34727E+012        0.39922E-032        0.47276E-032
        0.85084E-002         3.2918             0.43321              2580.3             0.41265E+012        0.47437E-032        0.54228E-032
        0.87639E-002         3.3268             0.44845              2588.9             0.48892E+012        0.56205E-032        0.62068E-032
        0.90214E-002         3.3560             0.46442              2600.3             0.60394E+012        0.69427E-032        0.74033E-032
        0.92921E-002         3.3917             0.48071              2609.0             0.71513E+012        0.82209E-032        0.84692E-032
        0.95792E-002         3.4228             0.49833              2620.6             0.88589E+012        0.10184E-031        0.10121E-031
        0.98668E-002         3.4641             0.51531              2626.8             0.10082E+013        0.11590E-031        0.11138E-031
        0.10157E-001         3.4977             0.53326              2636.7             0.12124E+013        0.13938E-031        0.12944E-031
        0.10454E-001         3.5291             0.55192              2647.6             0.14822E+013        0.17039E-031        0.15288E-031
        0.10759E-001         3.5581             0.57130              2659.6             0.18410E+013        0.21164E-031        0.18346E-031
        0.11078E-001         3.5899             0.59105              2670.4             0.22430E+013        0.25785E-031        0.21605E-031
        0.11413E-001         3.6237             0.61156              2680.7             0.27074E+013        0.31123E-031        0.25203E-031
        0.11755E-001         3.6541             0.63303              2692.6             0.33538E+013        0.38555E-031        0.30162E-031
        0.12108E-001         3.6921             0.65442              2701.1             0.39332E+013        0.45215E-031        0.34217E-031
        0.12478E-001         3.7212             0.67813              2714.5             0.49778E+013        0.57224E-031        0.41790E-031
        0.12852E-001         3.7538             0.70207              2726.3             0.61322E+013        0.70494E-031        0.49726E-031
        0.13236E-001         3.7816             0.72761              2740.6             0.78462E+013        0.90198E-031        0.61391E-031
        0.13635E-001         3.8154             0.75383              2752.7             0.97063E+013        0.11158E-030        0.73303E-031
        0.14057E-001         3.8430             0.78264              2768.7             0.12715E+014        0.14617E-030        0.92491E-031
        0.14479E-001         3.8794             0.81093              2780.2             0.15571E+014        0.17900E-030        0.10931E-030
        0.14908E-001         3.9032             0.84175              2797.7             0.20803E+014        0.23915E-030        0.14070E-030
        0.15348E-001         3.9355             0.87324              2811.9             0.26466E+014        0.30425E-030        0.17254E-030
        0.15810E-001         3.9609             0.90781              2830.2             0.35727E+014        0.41071E-030        0.22405E-030
        0.16299E-001         3.9835             0.94564              2851.1             0.50036E+014        0.57520E-030        0.30123E-030
        0.16788E-001         4.0040             0.98552              2873.3             0.71299E+014        0.81964E-030        0.41187E-030
        0.17281E-001         4.0149              1.0279              2899.7             0.10750E+015        0.12358E-029        0.59540E-030
        0.17783E-001         4.0055              1.0735              2934.8             0.18219E+015        0.20944E-029        0.96619E-030
        0.18316E-001         3.9939              1.1225              2972.1             0.31653E+015        0.36387E-029        0.16054E-029
        0.18866E-001         3.9778              1.1746              3012.1             0.56721E+015        0.65204E-029        0.27491E-029
        0.19435E-001         3.9617              1.2297              3053.0             0.10220E+016        0.11748E-028        0.47312E-029
        0.20028E-001         3.9422              1.2887              3096.6             0.18950E+016        0.21784E-028        0.83716E-029
        0.20647E-001         3.9229              1.3511              3141.1             0.35303E+016        0.40583E-028        0.14875E-028
        0.21267E-001         3.9038              1.4154              3185.5             0.65109E+016        0.74847E-028        0.26189E-028
        0.21889E-001         3.8863              1.4812              3229.2             0.11789E+017        0.13552E-027        0.45311E-028
        0.22545E-001         3.8687              1.5513              3274.2             0.21540E+017        0.24762E-027        0.79049E-028
        0.23239E-001         3.8501              1.6261              3320.9             0.39945E+017        0.45920E-027        0.13985E-027
        0.23936E-001         3.8335              1.7024              3366.5             0.72438E+017        0.83273E-027        0.24224E-027
        0.24636E-001         3.8182              1.7805              3411.3             0.12887E+018        0.14815E-026        0.41206E-027
        0.25375E-001         3.8035              1.8634              3457.0             0.23041E+018        0.26488E-026        0.70396E-027
        0.26155E-001         3.7870              1.9521              3505.0             0.42080E+018        0.48374E-026        0.12272E-026
        0.26939E-001         3.7735              2.0426              3551.3             0.74647E+018        0.85813E-026        0.20805E-026
        0.27726E-001         3.7624              2.1347              3596.0             0.12903E+019        0.14833E-025        0.34411E-026
        0.28557E-001         3.7497              2.2333              3642.9             0.22760E+019        0.26165E-025        0.58019E-026
        0.29433E-001         3.7379              2.3377              3690.6             0.40191E+019        0.46203E-025        0.97880E-026
        0.30021E-001         3.5048              2.6855              3945.8             0.68162E+020        0.78357E-024        0.14450E-024
        0.30622E-001         3.3904              2.8265              4063.5             0.23411E+021        0.26912E-023        0.47153E-024
        0.31239E-001         3.2944              2.9689              4173.2             0.71870E+021        0.82620E-023        0.13782E-023
        0.31864E-001         3.2123              3.1126              4276.5             0.20156E+022        0.23171E-022        0.36867E-023
        0.32501E-001         3.1395              3.2595              4375.9             0.53253E+022        0.61218E-022        0.93010E-023
        0.33156E-001         3.0734              3.4110              4473.3             0.13511E+023        0.15532E-021        0.22550E-022
        0.33819E-001         3.0127              3.5665              4568.7             0.33050E+023        0.37994E-021        0.52757E-022
        0.34496E-001         2.9559              3.7279              4663.7             0.79107E+023        0.90939E-021        0.12081E-021
        0.35191E-001         2.9022              3.8955              4758.7             0.18613E+024        0.21396E-020        0.27201E-021
        0.35895E-001         2.8514              4.0692              4853.6             0.43039E+024        0.49476E-020        0.60213E-021
        0.36613E-001         2.8028              4.2498              4948.9             0.98319E+024        0.11302E-019        0.13171E-020
        0.37348E-001         2.7559              4.4382              5045.2             0.22308E+025        0.25645E-019        0.28615E-020
        0.38104E-001         2.7104              4.6360              5143.1             0.50516E+025        0.58072E-019        0.62035E-020
        0.38866E-001         2.6666              4.8406              5241.5             0.11309E+026        0.13001E-018        0.13301E-019
        0.39643E-001         2.6242              5.0539              5340.9             0.25151E+026        0.28913E-018        0.28332E-019
        0.40445E-001         2.5831              5.2774              5441.8             0.55797E+026        0.64143E-018        0.60191E-019
        0.41255E-001         2.5435              5.5085              5543.2             0.12238E+027        0.14069E-017        0.12648E-018
        0.42080E-001         2.5048              5.7501              5646.1             0.26785E+027        0.30792E-017        0.26520E-018
        0.42922E-001         2.4675              6.0005              5749.5             0.58043E+027        0.66725E-017        0.55069E-018
        0.43777E-001         2.4315              6.2611              5853.8             0.12493E+028        0.14361E-016        0.11359E-017
        0.44644E-001         2.3967              6.5308              5958.7             0.26628E+028        0.30611E-016        0.23212E-017
        0.45537E-001         2.3627              6.8132              6065.2             0.59639E+028        0.68560E-016        0.49834E-017
        0.46448E-001         2.3298              7.1066              6172.7             0.12651E+029        0.14543E-015        0.10135E-016
        0.47369E-001         2.2980              7.4101              6280.5             0.36978E+029        0.42509E-015        0.28409E-016
        0.48316E-001         2.2671              7.7271              6389.7             0.11779E+030        0.13541E-014        0.86786E-016
        0.49283E-001         2.2371              8.0565              6499.9             0.26744E+030        0.30744E-014        0.18898E-015
        0.50260E-001         2.2081              8.3968              6610.5             0.42764E+030        0.49160E-014        0.28994E-015
        0.51265E-001         2.1797              8.7528              6722.8             0.66518E+030        0.76467E-014        0.43265E-015
        0.52291E-001         2.1521              9.1225              6836.0             0.98269E+030        0.11297E-013        0.61326E-015
        0.53325E-001         2.1254              9.5040              6949.6             0.15008E+031        0.17253E-013        0.89902E-015
        0.54392E-001         2.0991              9.9036              7065.4             0.25306E+031        0.29091E-013        0.14547E-014
        0.55479E-001         2.0735              10.319              7182.4             0.49436E+031        0.56830E-013        0.27273E-014
        0.56576E-001         2.0487              10.748              7299.6             0.10462E+032        0.12027E-012        0.55418E-014
        0.57708E-001         2.0242              11.196              7419.0             0.25526E+032        0.29344E-012        0.12980E-013
        0.58862E-001         2.0004              11.662              7539.6             0.46365E+032        0.53300E-012        0.22633E-013
        0.60032E-001         2.0947              11.490              7340.6             0.15000E+032        0.17244E-012        0.74323E-014
        0.61244E-001         2.0758              11.937              7444.6             0.31223E+032        0.35893E-012        0.14891E-013
        0.62470E-001         2.0573              12.399              7549.3             0.53126E+032        0.61073E-012        0.24393E-013
        0.63738E-001         2.0388              12.885              7656.7             0.12709E+033        0.14610E-011        0.56155E-013
        0.65012E-001         2.0212              13.380              7762.8             0.25062E+033        0.28811E-011        0.10664E-012
        0.66323E-001         2.0036              13.898              7871.3             0.85324E+033        0.98086E-011        0.34951E-012
        0.67636E-001         1.9866              14.429              7979.3             0.23059E+034        0.26508E-010        0.90979E-012
        0.68982E-001         1.9699              14.982              8088.9             0.35154E+034        0.40412E-010        0.13358E-011
        0.70326E-001         1.9537              15.545              8197.4             0.14499E+035        0.16667E-009        0.53098E-011
        0.71704E-001         1.9378              16.131              8307.7             0.22888E+035        0.26312E-009        0.80777E-011
        0.73151E-001         1.9217              16.751              8421.3             0.35728E+035        0.41072E-009        0.12143E-010
        0.74634E-001         1.9057              17.398              8537.0             0.53183E+035        0.61138E-009        0.17403E-010
        0.76118E-001         1.8904              18.057              8651.5             0.91574E+035        0.10527E-008        0.28872E-010
        0.77643E-001         1.8753              18.744              8767.9             0.15755E+036        0.18112E-008        0.47853E-010
        0.79171E-001         1.8607              19.447              8883.6             0.26833E+036        0.30846E-008        0.78553E-010
